Lake Shore Cryotronics Inc. FORC Data File (Version 1.0.15.0)

Units of measure	cgs

Averaging time		100.000E-3
Hb1       		-1.33333E3
Hb2       		1.00000E3
Hc2       		1.33333E3
HCal      		2.33333E3
HSat      		3.00000E3
NForc     		50        
PauseCal  		0.00000
PauseRvrsl		1.00000
PauseSat  		1.00000
SlewRate  		10.0000E3
Smoothing 		1         

Field			Moment
(Oe)			(emu)
1.00000		1.00000

998.557		4.16954E-3

1.00000		1.00000

924.808		4.11268E-3
925.112		4.11282E-3
938.134		4.26389E-3
971.895		4.09753E-3

1.00000		1.00000

849.153		4.12290E-3
850.387		4.06191E-3
866.748		3.70350E-3
904.162		3.74140E-3
950.780		4.16523E-3
1.00456E3		4.37770E-3

1.00000		1.00000

774.984		4.00336E-3
775.565		4.01138E-3
792.080		3.72439E-3
832.092		3.43071E-3
882.594		3.62329E-3
939.312		4.20278E-3
1.00127E3		4.47352E-3
1.06213E3		4.47593E-3

1.00000		1.00000

699.720		3.94627E-3
700.832		3.94089E-3
705.849		3.83285E-3
737.387		4.38409E-3
784.713		3.84305E-3
841.281		3.64148E-3
903.046		4.04067E-3
962.773		4.37289E-3
1.03135E3		4.67815E-3
1.10147E3		4.90609E-3

1.00000		1.00000

625.003		3.88462E-3
625.914		3.90196E-3
644.042		3.92411E-3
686.475		4.52129E-3
740.609		4.18380E-3
800.765		3.61409E-3
866.038		3.57812E-3
930.046		3.53429E-3
998.484		3.67113E-3
1.06914E3		4.50958E-3
1.14026E3		4.84746E-3
1.22104E3		4.72833E-3

1.00000		1.00000

549.982		3.80735E-3
550.939		3.82320E-3
568.620		3.90578E-3
613.682		3.65984E-3
668.382		3.86002E-3
729.463		4.29744E-3
795.584		4.35146E-3
860.353		4.51540E-3
929.964		4.34737E-3
1.00138E3		3.64775E-3
1.07192E3		4.56964E-3
1.15776E3		5.20317E-3
1.22160E3		4.70294E-3
1.28752E3		4.84571E-3

1.00000		1.00000

474.625		3.76536E-3
476.189		3.74598E-3
492.488		4.23321E-3
535.605		3.64027E-3
592.070		3.82398E-3
655.173		3.90253E-3
734.814		3.46497E-3
797.060		3.89461E-3
864.212		3.57411E-3
935.073		3.62280E-3
1.00661E3		4.47259E-3
1.07874E3		3.91619E-3
1.14599E3		3.55559E-3
1.21753E3		3.77727E-3
1.28946E3		3.67497E-3
1.36106E3		3.86192E-3

1.00000		1.00000

399.230		3.64090E-3
401.330		3.63039E-3
404.932		3.70940E-3
442.835		3.51110E-3
492.838		3.88370E-3
551.819		4.03816E-3
616.523		3.99862E-3
683.398		3.88014E-3
750.159		3.21215E-3
823.109		3.19424E-3
893.877		3.65468E-3
966.992		2.95894E-3
1.05280E3		3.54104E-3
1.12139E3		4.26822E-3
1.19016E3		4.00528E-3
1.26088E3		3.81641E-3
1.33114E3		4.02661E-3
1.40074E3		4.32291E-3

1.00000		1.00000

323.885		3.58604E-3
326.542		3.57562E-3
327.139		3.57713E-3
366.810		4.10579E-3
418.292		3.71071E-3
477.836		3.46978E-3
543.097		3.82332E-3
610.790		4.15174E-3
677.969		4.69367E-3
751.142		4.60625E-3
825.100		3.69379E-3
898.914		3.32998E-3
981.495		4.05375E-3
1.04977E3		3.33891E-3
1.12022E3		4.31054E-3
1.19096E3		4.70559E-3
1.25948E3		4.71084E-3
1.33225E3		4.25918E-3
1.39996E3		3.45573E-3
1.47423E3		3.62358E-3

1.00000		1.00000

251.034		3.54319E-3
251.801		3.50580E-3
257.572		3.36497E-3
293.210		3.13046E-3
343.368		3.64838E-3
403.404		3.85812E-3
469.494		3.89095E-3
535.939		4.05621E-3
606.468		3.91334E-3
680.742		3.58460E-3
754.347		3.42979E-3
839.372		3.80571E-3
906.657		4.09849E-3
975.964		4.62944E-3
1.04746E3		4.25715E-3
1.12008E3		3.86068E-3
1.19224E3		3.68473E-3
1.26033E3		3.83498E-3
1.33069E3		4.51978E-3
1.40476E3		4.86455E-3
1.47770E3		4.57832E-3
1.56330E3		4.30889E-3

1.00000		1.00000

176.309		3.35888E-3
179.687		3.46128E-3
213.616		3.56445E-3
266.875		3.57936E-3
327.289		3.95257E-3
394.130		4.10050E-3
474.079		3.60182E-3
540.138		3.70154E-3
600.740		3.22862E-3
676.924		3.05143E-3
761.957		3.33393E-3
834.454		3.89151E-3
902.197		4.29842E-3
975.244		4.47823E-3
1.04773E3		3.75277E-3
1.12084E3		3.52934E-3
1.20178E3		4.13211E-3
1.26949E3		3.66139E-3
1.33948E3		4.52558E-3
1.40989E3		4.87602E-3
1.48215E3		4.64194E-3
1.55377E3		4.20935E-3
1.62121E3		3.45022E-3
1.69463E3		3.93738E-3

1.00000		1.00000

101.687		3.33960E-3
101.728		3.29944E-3
102.608		3.31466E-3
122.799		3.55295E-3
167.351		3.12088E-3
223.475		3.18235E-3
286.861		3.70985E-3
348.784		3.04411E-3
421.221		3.31464E-3
496.857		3.58945E-3
571.245		3.04320E-3
645.962		3.06519E-3
729.988		3.69477E-3
797.292		3.97450E-3
868.281		4.60467E-3
938.134		3.70101E-3
1.01205E3		3.40281E-3
1.08541E3		3.42234E-3
1.15463E3		3.35055E-3
1.22799E3		3.74371E-3
1.30110E3		4.63838E-3
1.37449E3		4.91023E-3
1.45646E3		5.00721E-3
1.52417E3		5.01884E-3
1.59256E3		4.91699E-3
1.66544E3		4.79557E-3

1.00000		1.00000

25.7729		3.17018E-3
27.2864		3.16440E-3
32.4088		2.99083E-3
65.7328		3.10545E-3
116.750		2.78732E-3
178.358		2.77424E-3
258.684		3.34577E-3
322.804		3.14977E-3
391.526		3.74065E-3
464.769		4.12546E-3
538.116		3.95442E-3
612.041		3.45929E-3
680.794		3.25911E-3
753.967		3.15700E-3
826.247		4.18039E-3
899.645		4.61298E-3
987.571		4.11734E-3
1.05448E3		4.02901E-3
1.12218E3		4.68516E-3
1.19501E3		4.96466E-3
1.27531E3		4.67610E-3
1.35436E3		3.93003E-3
1.40464E3		4.72203E-3
1.47999E3		4.33771E-3
1.55555E3		4.42359E-3
1.62950E3		4.71756E-3
1.70204E3		4.95310E-3
1.78021E3		3.98381E-3

1.00000		1.00000

-48.5778		3.04505E-3
-47.5275		3.10168E-3
-26.8813		2.95177E-3
18.1000		2.71340E-3
74.0934		2.90345E-3
138.110		2.96574E-3
207.947		3.17453E-3
275.720		3.03559E-3
348.826		3.52379E-3
423.706		4.00321E-3
496.826		3.54699E-3
584.356		4.04857E-3
653.413		3.94096E-3
723.164		3.96422E-3
796.129		4.24997E-3
868.878		4.50224E-3
942.121		4.33542E-3
1.00863E3		4.32362E-3
1.08280E3		3.98650E-3
1.15738E3		4.03241E-3
1.23134E3		3.78355E-3
1.30555E3		4.46507E-3
1.38883E3		4.47395E-3
1.45143E3		4.40866E-3
1.52369E3		4.30994E-3
1.59643E3		4.50628E-3
1.66913E3		4.65599E-3
1.73973E3		4.73814E-3
1.80947E3		5.04770E-3
1.88215E3		4.80882E-3

1.00000		1.00000

-123.771		3.09444E-3
-122.474		2.96300E-3
-103.557		3.10145E-3
-57.9381		3.32417E-3
-1.42916		3.42400E-3
62.8447		3.37258E-3
132.642		2.82166E-3
202.310		3.35972E-3
274.772		2.85189E-3
350.422		2.97162E-3
424.643		3.38729E-3
512.660		3.95720E-3
580.852		3.91617E-3
650.284		3.64597E-3
722.696		3.23266E-3
796.181		3.37506E-3
882.749		4.36986E-3
947.318		4.29108E-3
1.01607E3		4.40725E-3
1.08871E3		4.24487E-3
1.16200E3		3.75247E-3
1.23727E3		4.03821E-3
1.30666E3		4.32292E-3
1.37635E3		5.07250E-3
1.44931E3		4.45160E-3
1.52387E3		4.01756E-3
1.59721E3		4.06315E-3
1.67567E3		4.75309E-3
1.74348E3		5.07153E-3
1.81533E3		5.06471E-3
1.88751E3		4.75744E-3
1.95833E3		4.63113E-3

1.00000		1.00000

-197.912		2.81932E-3
-195.430		2.83146E-3
-159.590		2.48678E-3
-105.935		2.40448E-3
-43.9749		2.55929E-3
22.6610		2.59273E-3
104.163		2.73365E-3
171.156		2.83634E-3
244.089		3.26409E-3
318.747		3.86681E-3
392.952		3.26700E-3
464.918		2.72656E-3
536.109		2.61226E-3
610.080		3.09014E-3
685.044		3.71096E-3
758.751		4.30601E-3
842.660		4.22738E-3
908.082		3.76923E-3
979.699		3.62656E-3
1.05059E3		4.20724E-3
1.12595E3		4.36999E-3
1.19778E3		4.78726E-3
1.26738E3		4.95600E-3
1.33977E3		4.20309E-3
1.41487E3		3.78905E-3
1.48883E3		4.25663E-3
1.57322E3		4.72143E-3
1.63844E3		5.26558E-3
1.70853E3		5.33300E-3
1.78058E3		4.92338E-3
1.85419E3		4.59113E-3
1.92522E3		4.22781E-3
1.99247E3		5.37223E-3
2.06693E3		5.91760E-3

1.00000		1.00000

-274.066		2.71498E-3
-272.171		2.63718E-3
-272.027		2.65061E-3
-252.836		2.40011E-3
-210.599		2.84417E-3
-153.253		2.98389E-3
-88.4290		2.53007E-3
-13.9112		3.50950E-3
56.6927		3.31944E-3
130.531		3.25120E-3
205.069		3.89062E-3
279.499		4.04230E-3
352.929		3.60491E-3
424.977		3.33630E-3
499.085		2.77688E-3
572.547		3.85768E-3
647.943		4.92649E-3
732.463		4.74611E-3
801.048		4.61828E-3
871.986		4.30886E-3
944.246		3.57535E-3
1.01557E3		4.52758E-3
1.08891E3		4.95648E-3
1.15803E3		4.15901E-3
1.23261E3		4.64745E-3
1.30549E3		3.89801E-3
1.38015E3		3.56364E-3
1.46701E3		4.07022E-3
1.53356E3		4.23672E-3
1.60197E3		4.53502E-3
1.67331E3		4.98455E-3
1.74420E3		4.50836E-3
1.81857E3		4.05694E-3
1.88855E3		4.23592E-3
1.96924E3		5.06805E-3
2.04269E3		4.78448E-3

1.00000		1.00000

-349.855		2.51324E-3
-346.961		2.46304E-3
-341.935		2.36257E-3
-308.515		2.86632E-3
-257.505		2.36574E-3
-195.749		2.33234E-3
-128.418		2.97249E-3
-50.9153		2.53423E-3
19.8110		3.17465E-3
94.2275		3.51108E-3
168.633		2.81915E-3
243.271		2.51561E-3
309.917		3.04467E-3
385.541		3.53767E-3
460.004		2.94430E-3
537.303		3.13495E-3
612.452		2.89553E-3
693.535		3.84077E-3
764.401		3.34143E-3
836.717		3.27772E-3
908.648		3.94846E-3
978.871		3.63394E-3
1.05212E3		3.26845E-3
1.11907E3		4.08532E-3
1.19461E3		4.52869E-3
1.27091E3		4.63728E-3
1.34479E3		4.76193E-3
1.42944E3		4.49760E-3
1.49515E3		4.39336E-3
1.56616E3		4.28948E-3
1.63766E3		3.81567E-3
1.71046E3		3.19462E-3
1.78326E3		4.45195E-3
1.86216E3		4.76857E-3
1.93193E3		4.39702E-3
2.00387E3		4.25439E-3
2.07605E3		4.14572E-3
2.14726E3		4.38806E-3

1.00000		1.00000

-422.220		2.39788E-3
-421.788		2.21903E-3
-420.841		2.19949E-3
-384.250		2.51857E-3
-331.533		2.43912E-3
-270.461		2.03618E-3
-202.330		2.05128E-3
-126.883		2.17825E-3
-55.0343		2.59621E-3
18.1000		3.12088E-3
93.4656		3.22290E-3
165.673		3.80771E-3
241.144		3.34512E-3
312.512		2.76191E-3
388.114		2.88632E-3
459.690		2.57710E-3
537.138		3.00258E-3
624.478		2.88394E-3
691.245		3.50571E-3
759.950		3.28571E-3
832.679		3.45153E-3
903.478		3.58650E-3
979.103		3.85726E-3
1.04846E3		4.13854E-3
1.11902E3		3.44714E-3
1.19322E3		3.01577E-3
1.26993E3		3.70921E-3
1.34387E3		4.44334E-3
1.42319E3		3.85618E-3
1.49331E3		4.12223E-3
1.56565E3		4.30466E-3
1.63737E3		3.82970E-3
1.71005E3		3.86734E-3
1.78596E3		4.58283E-3
1.85862E3		5.06331E-3
1.92959E3		4.70090E-3
2.00189E3		4.40325E-3
2.07404E3		4.19472E-3

1.00000		1.00000

-499.232		1.78168E-3
-496.514		2.00281E-3
-475.398		1.61164E-3
-430.529		1.57447E-3
-376.693		1.97199E-3
-309.411		2.19612E-3
-240.570		2.64790E-3
-171.997		3.39515E-3
-96.7085		3.07402E-3
-21.2318		2.57878E-3
53.7119		2.23869E-3
141.271		3.10453E-3
209.827		3.34964E-3
280.209		3.72495E-3
351.261		2.75179E-3
423.928		3.28944E-3
511.131		3.74915E-3
578.392		3.67906E-3
647.526		3.73244E-3
720.622		3.60377E-3
793.222		3.25186E-3
867.314		3.37754E-3
936.457		3.82727E-3
1.00685E3		4.04173E-3
1.08158E3		4.46769E-3
1.15862E3		3.84996E-3
1.23263E3		3.92207E-3
1.31186E3		4.66348E-3
1.38225E3		4.73439E-3
1.45458E3		4.75213E-3
1.52497E3		4.13983E-3
1.59950E3		4.14931E-3
1.66544E3		4.64491E-3
1.73792E3		3.98063E-3
1.81344E3		4.56447E-3
1.88844E3		5.17117E-3
1.96145E3		4.75013E-3
2.04537E3		4.20038E-3

1.00000		1.00000

-574.246		1.73196E-3
-571.537		1.60819E-3
-551.336		2.29582E-3
-504.877		2.31069E-3
-448.114		2.42227E-3
-383.241		2.31705E-3
-313.943		1.67254E-3
-245.085		2.38194E-3
-172.554		1.75815E-3
-98.7989		2.80372E-3
-23.8848		2.88237E-3
67.0662		2.65519E-3
134.835		2.81855E-3
205.404		2.76392E-3
278.397		2.26562E-3
352.543		2.35785E-3
425.755		3.36344E-3
495.575		3.45204E-3
567.560		3.90346E-3
642.679		3.79855E-3
715.003		3.98483E-3
791.566		3.90465E-3
871.235		4.23276E-3
941.643		4.04340E-3
1.01294E3		4.17102E-3
1.08588E3		4.17259E-3
1.15876E3		3.57276E-3
1.22578E3		4.44498E-3
1.29986E3		4.15166E-3
1.37555E3		4.06709E-3
1.44929E3		4.22087E-3
1.52354E3		4.69980E-3
1.60632E3		4.25071E-3
1.66770E3		4.64644E-3
1.74098E3		4.67750E-3
1.81483E3		4.71044E-3
1.88764E3		5.15842E-3
1.96017E3		5.03932E-3

1.00000		1.00000

-647.375		1.22962E-3
-646.191		1.13500E-3
-640.062		993.052E-6
-609.394		716.586E-6
-555.972		1.17171E-3
-494.290		1.10234E-3
-425.989		1.05999E-3
-349.299		2.24454E-3
-277.259		1.88016E-3
-203.998		2.00782E-3
-129.799		2.29361E-3
11.0599		1.12610E-3
87.2159		1.28911E-3
164.010		1.44454E-3
236.774		2.65311E-3
312.450		3.30999E-3
392.699		2.33404E-3
464.275		2.79915E-3
536.109		2.37511E-3
608.933		2.29180E-3
681.591		2.92690E-3
754.265		3.60348E-3
822.939		4.26938E-3
894.778		3.41132E-3
971.077		2.92614E-3
1.04630E3		3.16190E-3
1.12988E3		3.92254E-3
1.19533E3		3.99050E-3
1.26615E3		4.52937E-3
1.33716E3		3.77491E-3
1.41208E3		3.46700E-3
1.48513E3		3.55270E-3
1.56321E3		4.52763E-3
1.63580E3		4.33749E-3
1.70652E3		4.98430E-3
1.77867E3		5.03727E-3
1.84877E3		4.03453E-3
1.91881E3		3.90266E-3

1.00000		1.00000

-722.163		603.866E-6
-721.133		494.916E-6
-716.477		613.283E-6
-681.020		977.892E-6
-629.884		526.381E-6
-568.457		378.608E-6
-501.107		574.057E-6
-436.017		1.34780E-3
-360.988		1.58993E-3
-284.159		1.73254E-3
-208.601		1.70422E-3
-135.518		1.47157E-3
-53.6441		2.30497E-3
18.7390		1.79872E-3
90.3562		2.30453E-3
164.973		2.63791E-3
238.786		1.95875E-3
318.695		1.95105E-3
389.246		1.60359E-3
462.047		1.69628E-3
533.011		2.39311E-3
674.017		2.36876E-3
748.533		2.70954E-3
823.361		2.68780E-3
897.201		3.07532E-3
970.727		3.98566E-3
1.05483E3		4.54924E-3
1.12056E3		4.80284E-3
1.19185E3		4.75064E-3
1.26226E3		4.69019E-3
1.33744E3		4.38744E-3
1.40933E3		4.43102E-3
1.47770E3		4.21083E-3
1.55237E3		4.72576E-3
1.62690E3		4.77087E-3
1.70016E3		4.11957E-3
1.78660E3		4.11899E-3
1.85229E3		4.20365E-3

1.00000		1.00000

-797.244		-372.704E-6
-795.760		-310.069E-6
-778.617		-525.177E-6
-735.040		-412.069E-6
-677.527		-568.039E-6
-612.464		-58.8611E-6
-533.123		380.912E-6
-464.968		632.333E-6
-391.982		828.747E-6
-318.464		395.266E-6
-244.487		37.3454E-6
-170.163		341.827E-6
-99.4889		309.826E-6
-27.3653		1.24942E-3
46.8648		801.586E-6
123.350		46.2234E-6
212.020		326.511E-6
279.066		826.612E-6
348.259		998.064E-6
420.716		1.92219E-3
493.980		2.34768E-3
567.396		2.31858E-3
637.610		2.40786E-3
709.188		2.00458E-3
794.333		3.30408E-3
864.839		3.89832E-3
936.657		4.13042E-3
1.00441E3		3.62174E-3
1.07726E3		3.67707E-3
1.15116E3		3.40108E-3
1.22330E3		4.42958E-3
1.29788E3		4.94215E-3
1.38062E3		5.08867E-3
1.44513E3		4.90307E-3
1.51763E3		4.29216E-3
1.59027E3		4.02482E-3
1.66346E3		4.06666E-3
1.73456E3		5.07989E-3

1.00000		1.00000

-872.049		-1.10731E-3
-870.689		-1.16667E-3
-852.711		-1.21843E-3
-808.072		-831.287E-6
-749.328		-589.289E-6
-683.997		-533.614E-6
-614.813		-798.046E-6
-545.804		-326.252E-6
-473.215		-877.848E-6
-397.284		-1.21841E-3
-322.099		-757.764E-6
-247.373		-596.268E-6
-167.030		-530.165E-6
-95.4624		-578.349E-6
-11.3099		610.371E-6
57.4906		780.198E-6
127.556		95.2077E-6
199.189		-36.3343E-6
270.540		-437.581E-6
344.681		-258.060E-6
417.515		455.715E-6
491.942		873.093E-6
565.183		1.27795E-3
634.986		1.77905E-3
707.243		2.00962E-3
783.076		1.80317E-3
856.813		2.68876E-3
940.706		3.51986E-3
1.00855E3		4.48176E-3
1.07992E3		4.69100E-3
1.14975E3		4.34870E-3
1.22248E3		4.62790E-3
1.29659E3		5.03618E-3
1.36739E3		4.43077E-3
1.43906E3		4.95349E-3
1.51331E3		5.32456E-3
1.58707E3		4.63282E-3
1.67295E3		4.22507E-3

1.00000		1.00000

-947.575		-2.05087E-3
-945.638		-1.93246E-3
-930.339		-1.77683E-3
-882.949		-1.72524E-3
-825.328		-1.49642E-3
-760.949		-1.77258E-3
-690.662		-2.03073E-3
-613.082		-981.076E-6
-540.551		-1.40694E-3
-467.264		-1.28522E-3
-392.960		-981.363E-6
-251.310		-1.53680E-3
-176.470		-1.95319E-3
-100.251		-1.91701E-3
-27.0461		-1.48660E-3
48.8314		-474.990E-6
130.099		-1.22504E-3
201.944		-487.154E-6
274.046		-207.928E-6
345.530		-300.062E-6
485.772		119.106E-6
559.682		1.02773E-3
634.008		1.45178E-3
708.941		793.402E-6
783.220		915.484E-6
862.133		2.23214E-3
932.649		2.71434E-3
1.00446E3		3.82067E-3
1.07684E3		4.26905E-3
1.14922E3		4.20365E-3
1.22197E3		3.64554E-3
1.29939E3		4.41609E-3
1.37089E3		4.45300E-3
1.44310E3		4.82980E-3
1.51811E3		4.97368E-3
1.58550E3		4.58358E-3
1.65740E3		4.33359E-3
1.70854E3		4.26505E-3

1.00000		1.00000

-1.02452E3		-2.48242E-3
-1.02024E3		-2.57803E-3
-1.00383E3		-2.83154E-3
-959.547		-2.84149E-3
-901.823		-2.73797E-3
-836.537		-2.89309E-3
-756.107		-2.79090E-3
-690.023		-2.71537E-3
-617.594		-2.29873E-3
-546.371		-2.77841E-3
-469.612		-1.79310E-3
-395.143		-2.32606E-3
-323.850		-2.67342E-3
-249.640		-2.43770E-3
-173.852		-1.82529E-3
-99.8493		-1.07339E-3
-15.7928		-981.672E-6
52.5690		-985.721E-6
124.163		-1.51357E-3
196.744		-1.53072E-3
268.023		-1.03807E-3
352.677		-378.063E-6
421.632		-449.129E-6
489.811		-874.165E-6
563.459		-806.431E-6
636.247		4.26561E-6
708.072		706.765E-6
776.738		1.39460E-3
852.481		2.23984E-3
926.259		2.35822E-3
999.798		2.84610E-3
1.08341E3		3.01759E-3
1.15056E3		3.39889E-3
1.22117E3		4.59186E-3
1.29399E3		4.76146E-3
1.36647E3		3.94336E-3
1.43854E3		3.63196E-3
1.50708E3		3.15106E-3

1.00000		1.00000

-1.09593E3		-2.85717E-3
-1.09534E3		-3.03453E-3
-1.09449E3		-3.05082E-3
-1.05882E3		-3.33947E-3
-1.00619E3		-3.16947E-3
-945.278		-2.52686E-3
-877.128		-2.32127E-3
-795.585		-2.82266E-3
-729.158		-3.10227E-3
-656.997		-3.31812E-3
-582.168		-3.10102E-3
-509.636		-3.14438E-3
-433.206		-2.50842E-3
-362.553		-2.05556E-3
-274.653		-1.65234E-3
-202.814		-2.28520E-3
-132.365		-2.25855E-3
-62.5925		-1.43361E-3
7.10187		-2.26614E-3
81.7281		-1.34921E-3
156.978		-1.16604E-3
228.511		-1.24347E-3
314.422		-1.50693E-3
382.932		-1.14804E-3
450.565		-523.579E-6
524.356		169.602E-6
598.996		-375.213E-6
671.573		-764.179E-6
741.386		63.5067E-6
812.876		272.871E-6
887.662		1.23172E-3
961.327		2.58881E-3
1.04841E3		3.29161E-3
1.11276E3		3.55677E-3
1.18098E3		3.94094E-3
1.25381E3		3.78685E-3
1.32763E3		4.18066E-3
1.40032E3		4.67328E-3

1.00000		1.00000

-1.17267E3		-3.47873E-3
-1.17021E3		-3.35725E-3
-1.15130E3		-3.39907E-3
-1.10346E3		-3.34281E-3
-1.04642E3		-3.14004E-3
-981.635		-2.96993E-3
-912.856		-2.79192E-3
-846.829		-3.77740E-3
-771.705		-3.72735E-3
-694.895		-3.59401E-3
-619.964		-3.71391E-3
-464.227		-3.75523E-3
-392.393		-2.85494E-3
-321.585		-3.23014E-3
-247.455		-3.60479E-3
-173.935		-2.80968E-3
-106.502		-2.17370E-3
-32.1845		-1.61840E-3
44.1569		-1.33601E-3
118.696		-1.66292E-3
192.805		-1.24931E-3
276.955		-1.95533E-3
342.158		-2.13641E-3
410.146		-2.26315E-3
485.926		-1.55139E-3
559.682		-1.52821E-3
632.295		-1.38780E-3
701.367		-1.43264E-3
775.297		-804.269E-6
847.002		498.410E-6
923.481		1.64576E-3
1.00770E3		2.53486E-3
1.07125E3		2.35001E-3
1.14231E3		2.20685E-3
1.21594E3		2.79673E-3
1.28886E3		4.15539E-3
1.37186E3		4.77765E-3
1.43896E3		4.71347E-3

1.00000		1.00000

-1.24560E3		-3.45898E-3
-1.24479E3		-3.61008E-3
-1.22424E3		-3.93910E-3
-1.18030E3		-4.16176E-3
-1.12351E3		-4.13053E-3
-1.05926E3		-3.92687E-3
-990.587		-3.68468E-3
-922.592		-4.35523E-3
-846.355		-3.62171E-3
-770.860		-2.92877E-3
-694.957		-2.95096E-3
-612.536		-2.52869E-3
-541.354		-3.17132E-3
-468.860		-3.05172E-3
-396.018		-2.69676E-3
-323.552		-2.67464E-3
-249.774		-3.02241E-3
-181.012		-2.86881E-3
-105.369		-3.21681E-3
-31.2062		-2.59590E-3
43.7605		-1.97163E-3
129.898		-2.21107E-3
197.192		-2.11581E-3
264.934		-2.43210E-3
337.334		-2.33987E-3
410.583		-1.67848E-3
493.234		-1.23488E-3
561.874		-551.815E-6
633.169		-305.179E-6
705.617		-595.574E-6
780.381		-694.757E-6
851.365		304.870E-6
921.372		107.197E-6
991.214		1.21338E-3
1.06707E3		2.28066E-3
1.14092E3		2.37061E-3
1.22754E3		2.97050E-3
1.29289E3		3.41213E-3

1.00000		1.00000

-1.32066E3		-3.79212E-3
-1.31973E3		-3.84950E-3
-1.31762E3		-3.86351E-3
-1.28209E3		-3.97438E-3
-1.23138E3		-4.30918E-3
-1.16986E3		-4.17779E-3
-1.10218E3		-3.44068E-3
-1.02030E3		-3.07560E-3
-954.220		-3.21182E-3
-881.661		-3.53117E-3
-809.153		-2.87331E-3
-733.721		-1.98630E-3
-657.739		-1.82109E-3
-586.093		-2.24354E-3
-511.810		-2.18551E-3
-436.490		-2.32692E-3
-362.172		-3.32220E-3
-277.619		-3.81380E-3
-212.206		-3.41801E-3
-140.743		-2.94498E-3
-70.2949		-3.19768E-3
5.77220		-2.91340E-3
90.2017		-3.24837E-3
155.351		-3.00179E-3
228.228		-2.54098E-3
301.056		-2.07007E-3
373.838		-1.81072E-3
445.542		-1.82030E-3
515.402		-1.81401E-3
589.445		-1.85729E-3
663.313		-1.68969E-3
737.701		-848.076E-6
820.598		649.749E-6
886.237		1.39877E-3
956.954		1.68277E-3
1.03023E3		2.07547E-3
1.10006E3		3.15082E-3
1.17376E3		3.18695E-3

1.00000		1.00000

-1.39550E3		-4.06355E-3
-1.39456E3		-4.01013E-3
-1.37782E3		-4.31926E-3
-1.33385E3		-4.24519E-3
-1.27742E3		-4.50710E-3
-1.21188E3		-4.58469E-3
-1.13270E3		-4.02574E-3
-1.06413E3		-4.43178E-3
-992.298		-3.54013E-3
-917.894		-3.11090E-3
-845.788		-3.59735E-3
-770.252		-3.96256E-3
-700.633		-4.49995E-3
-623.991		-4.45388E-3
-537.615		-3.27688E-3
-465.370		-3.05310E-3
-397.016		-3.79103E-3
-328.104		-3.11351E-3
-253.887		-3.75274E-3
-179.900		-3.75823E-3
-106.934		-3.48306E-3
-18.4969		-2.76687E-3
46.2986		-2.56545E-3
114.871		-2.43213E-3
187.420		-2.47130E-3
261.572		-2.35986E-3
334.656		-1.82202E-3
404.552		-2.11490E-3
476.817		-1.54939E-3
551.294		-1.42770E-3
624.849		-1.21842E-3
712.796		-1.30207E-3
777.294		-831.367E-6
845.469		175.448E-6
917.467		992.746E-6
991.178		1.42316E-3
1.06429E3		1.67351E-3
1.13423E3		2.50838E-3

1.00000		1.00000

-1.47031E3		-4.21149E-3
-1.46938E3		-4.14837E-3
-1.45045E3		-4.13890E-3
-1.40165E3		-4.38590E-3
-1.34466E3		-4.22113E-3
-1.28022E3		-3.87152E-3
-1.21160E3		-3.61998E-3
-1.14344E3		-3.59883E-3
-1.07107E3		-3.74510E-3
-994.987		-4.12542E-3
-920.326		-4.46705E-3
-830.974		-4.54281E-3
-764.493		-3.75667E-3
-695.472		-3.13599E-3
-622.086		-2.61953E-3
-547.391		-3.53447E-3
-474.008		-3.25561E-3
-403.482		-3.54301E-3
-330.998		-3.01266E-3
-255.794		-2.57818E-3
-181.682		-2.86899E-3
-94.5768		-3.36332E-3
-29.3836		-3.35322E-3
38.2417		-2.36123E-3
112.179		-1.66868E-3
186.787		-1.78750E-3
259.812		-2.52254E-3
327.845		-2.47194E-3
403.584		-2.06268E-3
478.731		-1.99701E-3
551.871		-1.78625E-3
625.677		-1.80006E-3
702.478		-1.64368E-3
772.771		-736.685E-6
845.237		-338.562E-6
918.285		229.444E-6
990.627		920.940E-6
1.06253E3		1.87857E-3

1.00000		1.00000

-1.54583E3		-4.24498E-3
-1.54405E3		-4.28026E-3
-1.52560E3		-3.93471E-3
-1.48097E3		-4.17560E-3
-1.42452E3		-3.94060E-3
-1.35950E3		-3.76341E-3
-1.28025E3		-3.74745E-3
-1.21415E3		-3.51727E-3
-1.14212E3		-4.13943E-3
-1.06770E3		-4.49226E-3
-993.565		-4.23002E-3
-920.789		-3.81431E-3
-850.136		-4.02312E-3
-776.423		-4.29783E-3
-700.664		-4.37906E-3
-623.744		-4.58421E-3
-539.922		-3.64522E-3
-470.507		-4.21748E-3
-399.395		-3.18177E-3
-328.474		-4.00226E-3
-253.866		-4.30542E-3
-180.178		-4.15582E-3
-111.918		-3.74987E-3
-43.0791		-3.18747E-3
33.6701		-2.54992E-3
110.083		-2.46297E-3
197.125		-3.11612E-3
263.771		-2.57697E-3
331.711		-3.02109E-3
404.814		-2.87526E-3
475.422		-2.54112E-3
550.698		-1.92849E-3
619.934		-1.48204E-3
690.725		-687.272E-6
765.481		-996.872E-6
840.185		-495.123E-6
913.716		976.080E-6
993.220		1.11376E-3

1.00000		1.00000

-1.62154E3		-4.43182E-3
-1.61900E3		-4.36169E-3
-1.59922E3		-4.53787E-3
-1.55284E3		-4.24309E-3
-1.49609E3		-4.17917E-3
-1.43221E3		-4.65790E-3
-1.36272E3		-4.74449E-3
-1.29474E3		-4.81269E-3
-1.22165E3		-4.92318E-3
-1.14639E3		-3.95752E-3
-1.07053E3		-3.34877E-3
-995.636		-3.49260E-3
-914.103		-4.01509E-3
-842.739		-4.66144E-3
-772.312		-3.57629E-3
-698.037		-3.08667E-3
-622.899		-3.23631E-3
-556.559		-3.42044E-3
-481.503		-3.77830E-3
-405.943		-4.01528E-3
-333.263		-3.30329E-3
-257.525		-2.75802E-3
-172.554		-2.89742E-3
-107.284		-2.76188E-3
-39.3205		-2.57929E-3
35.6934		-2.91595E-3
110.717		-2.94947E-3
182.693		-2.27227E-3
253.098		-2.10954E-3
326.027		-1.80732E-3
400.496		-1.98300E-3
474.244		-2.57831E-3
557.969		-2.57125E-3
620.377		-1.85605E-3
693.355		-1.03576E-3
766.793		-611.837E-6
840.108		-395.606E-6
923.280		-86.7292E-6

1.00000		1.00000

-1.69596E3		-4.23033E-3
-1.69366E3		-4.40581E-3
-1.67565E3		-4.36528E-3
-1.63049E3		-4.02087E-3
-1.57367E3		-3.94462E-3
-1.50846E3		-3.92815E-3
-1.42978E3		-4.65084E-3
-1.36065E3		-3.88540E-3
-1.28951E3		-4.70688E-3
-1.21639E3		-4.82191E-3
-1.14501E3		-5.23133E-3
-1.06973E3		-4.46111E-3
-998.932		-2.94455E-3
-922.510		-3.49200E-3
-847.354		-4.49597E-3
-772.560		-4.53689E-3
-685.408		-3.39438E-3
-619.840		-3.40613E-3
-551.110		-3.45246E-3
-479.876		-3.78897E-3
-404.728		-4.15919E-3
-331.976		-4.05742E-3
-265.431		-3.97055E-3
-190.579		-2.40297E-3
-113.978		-3.16288E-3
-39.2793		-3.70898E-3
47.0347		-2.97143E-3
112.889		-2.68935E-3
180.649		-2.51940E-3
253.696		-2.62987E-3
326.532		-3.10124E-3
412.626		-3.05611E-3
478.644		-2.54299E-3
547.636		-1.83530E-3
619.713		-1.24648E-3
692.886		-1.00674E-3
765.584		-1.24393E-3
834.670		-619.955E-6

1.00000		1.00000

-1.77016E3		-4.59362E-3
-1.76869E3		-4.51071E-3
-1.76496E3		-4.37814E-3
-1.72939E3		-4.40240E-3
-1.67875E3		-4.89264E-3
-1.61685E3		-4.82629E-3
-1.54969E3		-4.21693E-3
-1.47221E3		-4.55789E-3
-1.40093E3		-4.02810E-3
-1.32739E3		-3.76878E-3
-1.25608E3		-3.70029E-3
-1.18231E3		-3.24127E-3
-1.11337E3		-3.80608E-3
-1.03642E3		-3.93088E-3
-960.577		-3.61428E-3
-885.267		-3.83448E-3
-811.080		-4.56139E-3
-726.211		-4.66622E-3
-660.067		-4.66457E-3
-588.617		-4.20869E-3
-515.879		-3.26851E-3
-442.462		-3.10357E-3
-370.514		-3.85782E-3
-302.872		-4.18278E-3
-226.965		-4.42160E-3
-151.460		-4.14914E-3
-78.1415		-3.00174E-3
6.07112		-2.48134E-3
72.7807		-2.21452E-3
141.806		-3.29217E-3
216.422		-3.70914E-3
290.115		-3.54907E-3
361.774		-2.86397E-3
429.378		-1.69926E-3
503.469		-1.42795E-3
578.855		-1.49803E-3
652.646		-2.04244E-3
736.039		-1.33197E-3

1.00000		1.00000

-1.84567E3		-4.58725E-3
-1.84349E3		-4.58779E-3
-1.83494E3		-4.39396E-3
-1.80803E3		-4.11638E-3
-1.75576E3		-4.29987E-3
-1.69340E3		-4.63415E-3
-1.62527E3		-4.07567E-3
-1.54743E3		-4.87735E-3
-1.47551E3		-4.21376E-3
-1.40170E3		-3.80863E-3
-1.32822E3		-4.52248E-3
-1.25663E3		-4.30522E-3
-1.18873E3		-4.85695E-3
-1.11143E3		-4.32316E-3
-1.03537E3		-3.71591E-3
-959.928		-3.89474E-3
-885.761		-4.70518E-3
-805.887		-3.70172E-3
-734.792		-4.21090E-3
-662.106		-4.25097E-3
-589.760		-3.35023E-3
-518.197		-4.12576E-3
-444.768		-4.61433E-3
-374.870		-4.36972E-3
-301.646		-4.50446E-3
-228.593		-3.31020E-3
-153.397		-2.40029E-3
-68.8430		-2.60273E-3
-3.50608		-2.73078E-3
68.4459		-2.94204E-3
141.018		-3.37954E-3
212.586		-2.67304E-3
297.148		-2.10168E-3
365.693		-2.52229E-3
432.867		-2.97721E-3
507.164		-2.14841E-3
580.914		-2.38260E-3
651.849		-2.25456E-3

1.00000		1.00000

-1.91996E3		-4.70319E-3
-1.91836E3		-4.52921E-3
-1.89705E3		-4.20929E-3
-1.85410E3		-4.40456E-3
-1.79602E3		-4.29420E-3
-1.73147E3		-4.05209E-3
-1.66175E3		-4.06297E-3
-1.59347E3		-3.90166E-3
-1.52022E3		-4.11318E-3
-1.44504E3		-4.96035E-3
-1.36926E3		-5.14419E-3
-1.29443E3		-4.65581E-3
-1.21357E3		-4.90775E-3
-1.14250E3		-4.37863E-3
-1.06947E3		-4.17814E-3
-997.088		-4.27442E-3
-923.159		-4.15182E-3
-855.926		-4.43934E-3
-780.575		-4.03112E-3
-705.290		-3.72009E-3
-630.461		-3.93317E-3
-556.672		-4.51478E-3
-473.030		-4.29954E-3
-408.589		-3.33406E-3
-339.999		-3.62456E-3
-264.256		-4.01294E-3
-189.714		-4.14636E-3
-117.304		-3.65790E-3
-47.6923		-3.76106E-3
25.9067		-3.36887E-3
98.3819		-3.01996E-3
174.682		-2.81921E-3
259.611		-2.82557E-3
324.138		-3.12198E-3
394.295		-3.04663E-3
466.998		-2.24600E-3
540.612		-1.63721E-3
623.449		-1.61256E-3

1.00000		1.00000

-1.99409E3		-4.59670E-3
-1.99327E3		-4.63450E-3
-1.97289E3		-4.02964E-3
-1.92825E3		-4.40951E-3
-1.87048E3		-4.53347E-3
-1.80577E3		-4.58179E-3
-1.73688E3		-5.02506E-3
-1.66874E3		-4.64518E-3
-1.59596E3		-5.02651E-3
-1.51989E3		-4.82229E-3
-1.44446E3		-3.96436E-3
-1.35688E3		-5.14279E-3
-1.28943E3		-4.95531E-3
-1.21876E3		-4.97759E-3
-1.14867E3		-3.93037E-3
-1.07490E3		-3.94806E-3
-1.00052E3		-4.79048E-3
-928.042		-3.79420E-3
-854.957		-4.38967E-3
-779.833		-4.76409E-3
-705.969		-4.19672E-3
-631.759		-4.17888E-3
-552.943		-4.64008E-3
-482.492		-3.76540E-3
-410.442		-4.23397E-3
-337.270		-4.17485E-3
-264.462		-3.23948E-3
-197.366		-3.48309E-3
-122.978		-2.94632E-3
-47.8467		-2.72379E-3
26.2722		-3.37856E-3
177.674		-3.26016E-3
248.944		-2.83640E-3
321.177		-2.29428E-3
394.243		-2.09603E-3
466.498		-2.64107E-3
549.812		-2.86088E-3
613.919		-2.72042E-3

1.00000		1.00000

-2.07215E3		-4.62687E-3
-2.06789E3		-4.67518E-3
-2.04725E3		-4.43292E-3
-2.00538E3		-4.88055E-3
-1.94798E3		-5.18581E-3
-1.88285E3		-5.12822E-3
-1.81418E3		-5.21977E-3
-1.74509E3		-5.47898E-3
-1.67091E3		-5.04522E-3
-1.59456E3		-4.47831E-3
-1.51927E3		-3.97623E-3
-1.43344E3		-3.76450E-3
-1.36694E3		-4.53071E-3
-1.29671E3		-4.08629E-3
-1.22292E3		-3.69340E-3
-1.14829E3		-3.89995E-3
-1.06480E3		-4.81152E-3
-992.957		-3.75054E-3
-931.452		-4.03283E-3
-856.214		-4.52132E-3
-781.440		-4.58426E-3
-694.679		-4.67605E-3
-627.793		-3.93718E-3
-558.897		-3.38614E-3
-489.225		-4.02956E-3
-414.900		-4.46723E-3
-326.538		-3.70741E-3
-260.494		-3.66714E-3
-192.330		-3.08745E-3
-119.961		-2.79956E-3
-49.5973		-3.18968E-3
25.9891		-3.43975E-3
95.2571		-3.50846E-3
167.887		-3.49476E-3
241.108		-3.42109E-3
316.554		-2.66435E-3
403.249		-2.82103E-3
469.658		-2.40017E-3

1.00000		1.00000

-2.14377E3		-4.85661E-3
-2.14293E3		-4.70325E-3
-2.12405E3		-4.63629E-3
-2.07915E3		-4.13543E-3
-2.02218E3		-4.15611E-3
-1.95788E3		-4.75269E-3
-1.87479E3		-4.97719E-3
-1.81034E3		-4.88032E-3
-1.75031E3		-5.24569E-3
-1.67372E3		-4.84424E-3
-1.59871E3		-4.91308E-3
-1.51046E3		-4.83304E-3
-1.44081E3		-4.07546E-3
-1.36945E3		-4.83883E-3
-1.29539E3		-5.20545E-3
-1.22192E3		-4.57562E-3
-1.13444E3		-4.02177E-3
-1.06945E3		-3.79564E-3
-1.00009E3		-3.76064E-3
-927.661		-4.49704E-3
-854.484		-4.81336E-3
-780.843		-4.31674E-3
-713.119		-3.78185E-3
-639.042		-3.03613E-3
-568.416		-3.27372E-3
-492.128		-3.17484E-3
-416.115		-3.01617E-3
-336.899		-4.03962E-3
-266.317		-3.80510E-3
-194.390		-3.97173E-3
-123.555		-3.26121E-3
-49.5149		-2.78957E-3
30.4114		-2.69402E-3
97.1207		-3.43608E-3
171.773		-3.31229E-3
244.635		-3.49174E-3
317.681		-3.34944E-3
383.729		-2.62879E-3

1.00000		1.00000

-2.21995E3		-4.63387E-3
-2.21774E3		-4.76370E-3
-2.21215E3		-4.67682E-3
-2.18068E3		-5.02275E-3
-2.12943E3		-4.43280E-3
-2.06786E3		-4.96012E-3
-2.00007E3		-5.15963E-3
-1.92344E3		-4.18732E-3
-1.85155E3		-4.51950E-3
-1.77853E3		-4.05038E-3
-1.70387E3		-3.82120E-3
-1.63113E3		-4.21316E-3
-1.55749E3		-4.35990E-3
-1.48695E3		-4.70462E-3
-1.41197E3		-4.59737E-3
-1.34042E3		-4.99721E-3
-1.26106E3		-4.45388E-3
-1.17565E3		-5.10232E-3
-1.10889E3		-4.81900E-3
-1.03810E3		-5.12773E-3
-965.069		-5.02419E-3
-891.922		-4.00976E-3
-819.713		-3.45753E-3
-750.801		-3.29647E-3
-676.312		-3.50161E-3
-604.903		-3.61654E-3
-528.179		-3.57936E-3
-443.378		-3.07008E-3
-376.950		-3.16661E-3
-306.384		-3.01737E-3
-233.634		-3.13509E-3
-161.126		-3.32258E-3
-88.5423		-3.65984E-3
-19.7410		-3.29636E-3
64.9864		-2.75375E-3
136.503		-2.80852E-3
210.259		-3.17601E-3
281.157		-3.42990E-3

1.00000		1.00000

-2.29363E3		-5.00141E-3
-2.29277E3		-4.75109E-3
-2.29214E3		-4.75673E-3
-2.25247E3		-4.29070E-3
-2.19990E3		-5.08442E-3
-2.13908E3		-5.40465E-3
-2.07227E3		-4.93954E-3
-2.00771E3		-4.43603E-3
-1.93291E3		-4.10188E-3
-1.85661E3		-3.90624E-3
-1.78375E3		-4.62566E-3
-1.70788E3		-5.09321E-3
-1.62669E3		-4.51202E-3
-1.55407E3		-4.51537E-3
-1.48074E3		-3.84535E-3
-1.40716E3		-3.77302E-3
-1.33395E3		-4.73942E-3
-1.26079E3		-5.17895E-3
-1.19135E3		-5.64354E-3
-1.11697E3		-5.48533E-3
-1.04550E3		-4.88798E-3
-968.530		-4.21561E-3
-884.082		-3.93681E-3
-817.055		-2.96160E-3
-747.185		-3.36839E-3
-673.592		-3.93147E-3
-600.906		-3.27526E-3
-514.066		-3.41228E-3
-449.277		-3.57110E-3
-380.142		-3.57800E-3
-308.052		-4.16041E-3
-234.901		-4.06176E-3
-162.125		-3.20315E-3
-93.6809		-3.11726E-3
-24.6880		-3.44379E-3
52.9860		-3.37653E-3
128.452		-3.66709E-3
215.614		-3.42386E-3

1.00000		1.00000

-2.37085E3		-4.55849E-3
-2.36748E3		-4.76526E-3
-2.36739E3		-4.77587E-3
-2.34605E3		-5.02742E-3
-2.30924E3		-4.37839E-3
-2.25150E3		-4.76006E-3
-2.18670E3		-5.28748E-3
-2.11199E3		-4.27384E-3
-2.04116E3		-4.17600E-3
-1.96720E3		-4.18579E-3
-1.89328E3		-4.19143E-3
-1.81821E3		-4.40898E-3
-1.73406E3		-5.14181E-3
-1.66340E3		-4.31601E-3
-1.59238E3		-4.94183E-3
-1.52136E3		-5.03049E-3
-1.44601E3		-4.47006E-3
-1.37351E3		-4.28188E-3
-1.30399E3		-3.35788E-3
-1.22818E3		-4.10493E-3
-1.15394E3		-4.78753E-3
-1.08141E3		-3.93821E-3
-992.432		-3.33156E-3
-926.682		-3.71403E-3
-861.077		-4.70344E-3
-786.766		-4.73012E-3
-712.253		-4.24872E-3
-638.774		-3.73651E-3
-569.188		-3.94730E-3
-496.833		-3.42434E-3
-422.642		-3.40381E-3
-350.339		-3.65441E-3
-261.267		-3.86857E-3
-197.592		-3.35427E-3
-129.129		-3.15959E-3
-55.4153		-2.90466E-3
18.0587		-3.28696E-3
92.5183		-3.51844E-3

1.00000		1.00000

-2.44282E3		-4.88315E-3
-2.44206E3		-4.82215E-3
-2.43693E3		-4.95682E-3
-2.40382E3		-4.42761E-3
-2.35311E3		-5.05300E-3
-2.29216E3		-5.30462E-3
-2.22517E3		-5.01555E-3
-2.14789E3		-4.19202E-3
-2.07655E3		-4.14283E-3
-2.00302E3		-4.09941E-3
-1.92948E3		-4.32393E-3
-1.85644E3		-4.41627E-3
-1.78835E3		-4.00331E-3
-1.71173E3		-4.30465E-3
-1.63771E3		-4.65645E-3
-1.56068E3		-4.27135E-3
-1.48472E3		-4.70659E-3
-1.40444E3		-4.69454E-3
-1.33344E3		-5.10335E-3
-1.26124E3		-5.16669E-3
-1.18944E3		-4.55829E-3
-1.11592E3		-4.59160E-3
-1.04409E3		-4.13245E-3
-974.557		-4.01421E-3
-902.863		-4.31908E-3
-826.925		-4.30918E-3
-752.470		-3.63660E-3
-667.751		-3.34942E-3
-601.823		-3.03039E-3
-530.713		-3.25374E-3
-459.913		-3.52829E-3
-384.713		-3.85460E-3
-312.460		-3.41084E-3
-245.384		-2.86328E-3
-171.966		-2.45926E-3
-95.3801		-3.12036E-3
-21.3347		-3.72715E-3
63.6221		-3.78113E-3

1.00000		1.00000

-2.51796E3		-4.99131E-3
-2.51687E3		-4.84649E-3
-2.50037E3		-4.59180E-3
-2.45548E3		-4.19115E-3
-2.39864E3		-4.31112E-3
-2.33471E3		-4.74833E-3
-2.25212E3		-4.92534E-3
-2.18694E3		-4.96590E-3
-2.11643E3		-5.30434E-3
-2.04425E3		-5.10835E-3
-1.96880E3		-5.25878E-3
-1.89431E3		-5.18193E-3
-1.82569E3		-5.08056E-3
-1.74952E3		-5.21939E-3
-1.67267E3		-5.40108E-3
-1.59782E3		-4.94208E-3
-1.52313E3		-4.36292E-3
-1.44371E3		-5.04118E-3
-1.37298E3		-4.55508E-3
-1.30075E3		-4.90929E-3
-1.22872E3		-5.18779E-3
-1.15538E3		-5.58909E-3
-1.08722E3		-4.46256E-3
-1.01339E3		-3.48713E-3
-938.272		-3.45497E-3
-864.065		-4.44531E-3
-789.857		-4.70607E-3
-711.934		-4.20383E-3
-641.195		-3.90147E-3
-568.817		-3.59444E-3
-497.925		-4.36274E-3
-423.157		-4.71722E-3
-350.020		-4.40233E-3
-270.079		-4.55429E-3
-199.209		-4.41052E-3
-128.697		-3.44971E-3
-57.0114		-3.23744E-3
13.5544		-3.82928E-3

1.00000		1.00000

-2.59341E3		-4.99837E-3
-2.59174E3		-4.88310E-3
-2.57197E3		-4.57011E-3
-2.52904E3		-5.10178E-3
-2.47051E3		-5.19356E-3
-2.40572E3		-5.24026E-3
-2.33654E3		-5.45311E-3
-2.26802E3		-5.08126E-3
-2.19577E3		-5.14283E-3
-2.12001E3		-4.76039E-3
-2.04464E3		-4.12728E-3
-1.95615E3		-4.15248E-3
-1.88906E3		-4.76005E-3
-1.81890E3		-5.28531E-3
-1.74792E3		-4.25825E-3
-1.67403E3		-4.44336E-3
-1.58637E3		-5.01857E-3
-1.52030E3		-4.98932E-3
-1.45092E3		-4.34953E-3
-1.37736E3		-3.94195E-3
-1.30588E3		-4.72218E-3
-1.23017E3		-4.86803E-3
-1.16059E3		-4.91229E-3
-1.08997E3		-4.24924E-3
-1.01456E3		-3.32235E-3
-938.963		-3.16711E-3
-852.485		-4.17578E-3
-785.468		-4.02655E-3
-717.115		-4.53496E-3
-644.429		-4.66001E-3
-573.783		-4.04173E-3
-498.048		-3.59984E-3
-420.058		-3.54991E-3
-347.476		-3.49043E-3
-274.385		-4.00653E-3
-213.091		-3.89487E-3
-138.301		-3.01667E-3
-57.6395		-3.36941E-3

1.00000		1.00000

-2.66778E3		-4.81419E-3
-2.66680E3		-4.85729E-3
-2.65986E3		-4.87700E-3
-2.62666E3		-5.19507E-3
-2.57429E3		-5.03983E-3
-2.51367E3		-5.34476E-3
-2.44665E3		-5.36477E-3
-2.38413E3		-5.03766E-3
-2.30917E3		-4.95704E-3
-2.23318E3		-4.29000E-3
-2.15728E3		-4.22552E-3
-2.08440E3		-4.16816E-3
-1.99616E3		-4.86793E-3
-1.92835E3		-5.60274E-3
-1.85704E3		-5.65469E-3
-1.78543E3		-5.53846E-3
-1.71094E3		-5.39221E-3
-1.63776E3		-5.35584E-3
-1.56734E3		-4.94469E-3
-1.49244E3		-4.65322E-3
-1.41702E3		-4.06829E-3
-1.34315E3		-4.20982E-3
-1.25886E3		-4.34129E-3
-1.19345E3		-3.77292E-3
-1.12128E3		-4.16103E-3
-1.04830E3		-3.76762E-3
-974.979		-3.53747E-3
-888.955		-4.26106E-3
-823.288		-4.03541E-3
-754.479		-4.44473E-3
-693.989		-4.20475E-3
-616.255		-3.63572E-3
-526.788		-3.47134E-3
-459.666		-3.41408E-3
-392.167		-3.18524E-3
-319.350		-3.95369E-3
-245.569		-4.12404E-3
-159.147		-3.20494E-3


Data File Ends
